#Wavelength Transmission
5497.6 0.0012500000
5498.3 0.0013100000
5499.0 0.0012200000
5499.7 0.0013200000
5500.4 0.0013700000
5501.2 0.0013300000
5501.9 0.0012800000
5502.6 0.0012400000
5503.3 0.0012200000
5504.0 0.0012400000
5504.7 0.0012700000
5505.4 0.0012500000
5506.1 0.0011300000
5506.9 0.0012800000
5507.6 0.0012300000
5508.3 0.0013200000
5509.0 0.0012500000
5509.7 0.0011800000
5510.4 0.0010900000
5511.1 0.0012200000
5511.8 0.0012500000
5512.5 0.0012200000
5513.3 0.0012600000
5514.0 0.0012600000
5514.7 0.0013700000
5515.4 0.0013900000
5516.1 0.0013700000
5516.8 0.0012800000
5517.5 0.0012200000
5518.2 0.0012400000
5518.9 0.0013400000
5519.6 0.0013200000
5520.4 0.0014100000
5521.1 0.0013300000
5521.8 0.0013600000
5522.5 0.0013800000
5523.2 0.0014000000
5523.9 0.0012600000
5524.6 0.0013700000
5525.3 0.0014200000
5526.0 0.0014400000
5526.7 0.0013400000
5527.5 0.0014300000
5528.2 0.0013800000
5528.9 0.0012900000
5529.6 0.0014900000
5530.3 0.0015400000
5531.0 0.0013800000
5531.7 0.0015900000
5532.4 0.0013900000
5533.1 0.0015100000
5533.8 0.0015100000
5534.5 0.0015900000
5535.3 0.0013600000
5536.0 0.0014200000
5536.7 0.0016100000
5537.4 0.0016000000
5538.1 0.0016300000
5538.8 0.0013800000
5539.5 0.0014200000
5540.2 0.0016500000
5540.9 0.0016600000
5541.6 0.0016200000
5542.3 0.0016700000
5543.0 0.0017400000
5543.8 0.0016600000
5544.5 0.0017100000
5545.2 0.0016900000
5545.9 0.0017600000
5546.6 0.0017200000
5547.3 0.0017000000
5548.0 0.0018000000
5548.7 0.0018300000
5549.4 0.0018000000
5550.1 0.0018200000
5550.8 0.0018600000
5551.5 0.0018800000
5552.2 0.0018700000
5552.9 0.0019300000
5553.7 0.0020800000
5554.4 0.0018600000
5555.1 0.0019900000
5555.8 0.0019600000
5556.5 0.0021600000
5557.2 0.0019900000
5557.9 0.0020500000
5558.6 0.0021800000
5559.3 0.0022100000
5560.0 0.0021600000
5560.7 0.0023100000
5561.4 0.0022000000
5562.1 0.0022800000
5562.8 0.0023300000
5563.5 0.0023400000
5564.2 0.0024100000
5565.0 0.0024600000
5565.7 0.0024500000
5566.4 0.0027300000
5567.1 0.0027400000
5567.8 0.0026300000
5568.5 0.0026800000
5569.2 0.0027200000
5569.9 0.0028100000
5570.6 0.0030200000
5571.3 0.0031200000
5572.0 0.0030600000
5572.7 0.0030700000
5573.4 0.0031600000
5574.1 0.0031400000
5574.8 0.0032600000
5575.5 0.0033400000
5576.2 0.0035500000
5576.9 0.0034700000
5577.6 0.0037000000
5578.3 0.0037600000
5579.0 0.0037600000
5579.7 0.0039500000
5580.4 0.0039400000
5581.2 0.0040500000
5581.9 0.0042500000
5582.6 0.0043800000
5583.3 0.0044200000
5584.0 0.0044600000
5584.7 0.0046400000
5585.4 0.0049800000
5586.1 0.0049900000
5586.8 0.0049300000
5587.5 0.0052600000
5588.2 0.0055100000
5588.9 0.0056400000
5589.6 0.0058600000
5590.3 0.0060500000
5591.0 0.0062100000
5591.7 0.0063700000
5592.4 0.0065300000
5593.1 0.0067600000
5593.8 0.0069900000
5594.5 0.0073400000
5595.2 0.0077600000
5595.9 0.0079400000
5596.6 0.0081900000
5597.3 0.0083500000
5598.0 0.0085000000
5598.7 0.0089100000
5599.4 0.0094600000
5600.1 0.0096200000
5600.8 0.0098700000
5601.5 0.0103400000
5602.2 0.0106800000
5602.9 0.0112800000
5603.6 0.0119200000
5604.3 0.0120500000
5605.0 0.0123800000
5605.7 0.0131600000
5606.4 0.0141600000
5607.1 0.0143100000
5607.8 0.0151800000
5608.5 0.0153000000
5609.2 0.0165700000
5609.9 0.0167000000
5610.6 0.0180000000
5611.3 0.0183000000
5612.0 0.0188800000
5612.7 0.0203000000
5613.4 0.0211100000
5614.1 0.0219300000
5614.8 0.0237700000
5615.5 0.0241300000
5616.2 0.0253900000
5616.9 0.0269900000
5617.6 0.0276900000
5618.3 0.0288900000
5619.0 0.0305100000
5619.7 0.0323900000
5620.4 0.0338900000
5621.1 0.0355500000
5621.8 0.0362000000
5622.5 0.0384500000
5623.2 0.0408400000
5623.9 0.0432700000
5624.6 0.0459200000
5625.3 0.0480400000
5626.0 0.0511300000
5626.7 0.0535500000
5627.4 0.0556800000
5628.1 0.0590600000
5628.8 0.0619400000
5629.5 0.0653600000
5630.2 0.0695900000
5630.9 0.0730100000
5631.6 0.0769900000
5632.3 0.0811500000
5633.0 0.0859700000
5633.7 0.0905400000
5634.4 0.0967800000
5635.1 0.1013400000
5635.8 0.1069500000
5636.5 0.1134100000
5637.1 0.1207400000
5637.8 0.1279900000
5638.5 0.1353300000
5639.2 0.1420400000
5639.9 0.1496500000
5640.6 0.1600100000
5641.3 0.1692600000
5642.0 0.1786200000
5642.7 0.1887700000
5643.4 0.2001100000
5644.1 0.2124800000
5644.8 0.2243700000
5645.5 0.2366800000
5646.2 0.2504700000
5646.9 0.2647800000
5647.6 0.2788700000
5648.3 0.2932800000
5649.0 0.3102500000
5649.7 0.3264300000
5650.4 0.3443800000
5651.1 0.3636500000
5651.8 0.3808400000
5652.4 0.4001000000
5653.1 0.4177300000
5653.8 0.4361300000
5654.5 0.4591900000
5655.2 0.4783000000
5655.9 0.4991600000
5656.6 0.5183400000
5657.3 0.5383800000
5658.0 0.5595700000
5658.7 0.5796300000
5659.4 0.5989300000
5660.1 0.6170200000
5660.8 0.6354900000
5661.5 0.6538500000
5662.2 0.6702400000
5662.9 0.6901200000
5663.5 0.7045300000
5664.2 0.7198300000
5664.9 0.7358300000
5665.6 0.7476500000
5666.3 0.7602700000
5667.0 0.7709300000
5667.7 0.7798700000
5668.4 0.7902100000
5669.1 0.8005000000
5669.8 0.8049600000
5670.5 0.8129400000
5671.2 0.8188600000
5671.8 0.8226200000
5672.5 0.8286900000
5673.2 0.8335300000
5673.9 0.8339800000
5674.6 0.8383600000
5675.3 0.8406400000
5676.0 0.8413000000
5676.7 0.8400700000
5677.4 0.8439300000
5678.1 0.8419400000
5678.8 0.8444500000
5679.5 0.8440300000
5680.1 0.8421500000
5680.8 0.8442000000
5681.5 0.8438700000
5682.2 0.8394500000
5682.9 0.8409100000
5683.6 0.8391700000
5684.3 0.8371900000
5685.0 0.8355200000
5685.7 0.8384100000
5686.4 0.8370900000
5687.0 0.8342900000
5687.7 0.8314700000
5688.4 0.8344400000
5689.1 0.8274400000
5689.8 0.8334700000
5690.5 0.8317800000
5691.2 0.8271200000
5691.9 0.8299100000
5692.6 0.8292400000
5693.2 0.8296800000
5693.9 0.8273600000
5694.6 0.8290300000
5695.3 0.8307600000
5696.0 0.8304100000
5696.7 0.8270700000
5697.4 0.8312400000
5698.1 0.8301100000
5698.7 0.8300500000
5699.4 0.8309200000
5700.1 0.8330300000
5700.8 0.8328400000
5701.5 0.8359300000
5702.2 0.8380300000
5702.9 0.8385500000
5703.6 0.8360500000
5704.2 0.8397500000
5704.9 0.8419100000
5705.6 0.8453800000
5706.3 0.8465100000
5707.0 0.8412900000
5707.7 0.8476600000
5708.4 0.8508100000
5709.1 0.8486200000
5709.7 0.8526400000
5710.4 0.8582300000
5711.1 0.8532100000
5711.8 0.8595200000
5712.5 0.8630500000
5713.2 0.8649900000
5713.9 0.8679900000
5714.5 0.8669700000
5715.2 0.8727600000
5715.9 0.8764300000
5716.6 0.8778900000
5717.3 0.8804900000
5718.0 0.8818400000
5718.7 0.8824000000
5719.3 0.8884900000
5720.0 0.8884100000
5720.7 0.8888200000
5721.4 0.8923900000
5722.1 0.8971900000
5722.8 0.8996300000
5723.4 0.9003500000
5724.1 0.9042600000
5724.8 0.9031600000
5725.5 0.9074500000
5726.2 0.9052500000
5726.9 0.9097700000
5727.5 0.9151600000
5728.2 0.9145600000
5728.9 0.9186000000
5729.6 0.9183900000
5730.3 0.9208100000
5731.0 0.9250200000
5731.6 0.9227700000
5732.3 0.9237500000
5733.0 0.9293000000
5733.7 0.9284100000
5734.4 0.9251100000
5735.1 0.9297300000
5735.7 0.9318000000
5736.4 0.9328500000
5737.1 0.9370300000
5737.8 0.9387000000
5738.5 0.9385500000
5739.1 0.9407600000
5739.8 0.9415100000
5740.5 0.9414300000
5741.2 0.9439300000
5741.9 0.9449200000
5742.6 0.9443600000
5743.2 0.9474600000
5743.9 0.9434700000
5744.6 0.9477500000
5745.3 0.9493600000
5746.0 0.9494200000
5746.6 0.9520100000
5747.3 0.9531900000
5748.0 0.9528200000
5748.7 0.9548300000
5749.4 0.9550600000
5750.0 0.9516100000
5750.7 0.9540800000
5751.4 0.9554200000
5752.1 0.9525400000
5752.8 0.9544800000
5753.4 0.9530100000
5754.1 0.9525500000
5754.8 0.9563800000
5755.5 0.9548900000
5756.2 0.9577200000
5756.8 0.9579400000
5757.5 0.9581200000
5758.2 0.9544800000
5758.9 0.9532100000
5759.5 0.9552400000
5760.2 0.9550900000
5760.9 0.9526000000
5761.6 0.9524600000
5762.3 0.9556600000
5762.9 0.9499800000
5763.6 0.9597000000
5764.3 0.9523700000
5765.0 0.9558200000
5765.6 0.9556200000
5766.3 0.9528800000
5767.0 0.9526700000
5767.7 0.9487600000
5768.4 0.9486000000
5769.0 0.9530700000
5769.7 0.9523300000
5770.4 0.9502700000
5771.1 0.9511200000
5771.7 0.9499500000
5772.4 0.9521200000
5773.1 0.9549800000
5773.8 0.9501100000
5774.4 0.9481000000
5775.1 0.9452300000
5775.8 0.9481400000
5776.5 0.9471900000
5777.1 0.9484800000
5777.8 0.9454900000
5778.5 0.9494900000
5779.2 0.9529500000
5779.8 0.9423700000
5780.5 0.9470600000
5781.2 0.9445000000
5781.9 0.9442900000
5782.5 0.9469300000
5783.2 0.9430500000
5783.9 0.9426600000
5784.6 0.9456000000
5785.2 0.9459200000
5785.9 0.9436200000
5786.6 0.9404000000
5787.3 0.9415100000
5787.9 0.9430200000
5788.6 0.9410800000
5789.3 0.9426700000
5790.0 0.9398200000
5790.6 0.9406400000
5791.3 0.9407800000
5792.0 0.9403200000
5792.6 0.9384000000
5793.3 0.9412000000
5794.0 0.9418700000
5794.7 0.9411500000
5795.3 0.9402300000
5796.0 0.9370400000
5796.7 0.9411500000
5797.3 0.9379900000
5798.0 0.9375900000
5798.7 0.9372200000
5799.4 0.9369400000
5800.0 0.9363600000
5800.7 0.9376100000
5801.4 0.9341900000
5802.0 0.9390000000
5802.7 0.9393200000
5803.4 0.9358600000
5804.1 0.9357000000
5804.7 0.9388200000
5805.4 0.9389200000
5806.1 0.9380800000
5806.7 0.9372300000
5807.4 0.9365100000
5808.1 0.9377600000
5808.8 0.9364300000
5809.4 0.9332800000
5810.1 0.9361800000
5810.8 0.9395300000
5811.4 0.9421600000
5812.1 0.9340000000
5812.8 0.9374700000
5813.4 0.9357900000
5814.1 0.9355000000
5814.8 0.9347400000
5815.4 0.9337700000
5816.1 0.9355300000
5816.8 0.9341700000
5817.5 0.9338500000
5818.1 0.9357300000
5818.8 0.9328900000
5819.5 0.9326500000
5820.1 0.9359900000
5820.8 0.9318300000
5821.5 0.9323600000
5822.1 0.9361600000
5822.8 0.9348600000
5823.5 0.9329400000
5824.1 0.9363700000
5824.8 0.9337400000
5825.5 0.9325700000
5826.1 0.9295300000
5826.8 0.9331700000
5827.5 0.9338800000
5828.1 0.9328000000
5828.8 0.9336600000
5829.5 0.9317000000
5830.1 0.9370300000
5830.8 0.9300700000
5831.5 0.9355900000
5832.1 0.9358700000
5832.8 0.9356400000
5833.5 0.9332200000
5834.1 0.9347100000
5834.8 0.9336400000
5835.5 0.9346000000
5836.1 0.9325000000
5836.8 0.9309100000
5837.4 0.9330800000
5838.1 0.9326500000
5838.8 0.9315000000
5839.4 0.9304200000
5840.1 0.9319200000
5840.8 0.9327200000
5841.4 0.9306900000
5842.1 0.9313100000
5842.8 0.9338100000
5843.4 0.9321500000
5844.1 0.9302600000
5844.8 0.9317900000
5845.4 0.9300000000
5846.1 0.9330600000
5846.7 0.9276700000
5847.4 0.9319500000
5848.1 0.9290000000
5848.7 0.9290000000
5849.4 0.9290000000
5850.1 0.9304100000
5850.7 0.9300800000
5851.4 0.9297500000
5852.0 0.9308600000
5852.7 0.9284800000
5853.4 0.9290600000
5854.0 0.9289200000
5854.7 0.9303000000
5855.3 0.9278900000
5856.0 0.9293900000
5856.7 0.9319300000
5857.3 0.9274500000
5858.0 0.9292800000
5858.7 0.9254500000
5859.3 0.9283800000
5860.0 0.9274300000
5860.6 0.9300800000
5861.3 0.9306500000
5862.0 0.9274600000
5862.6 0.9279500000
5863.3 0.9293900000
5863.9 0.9296000000
5864.6 0.9290700000
5865.3 0.9276200000
5865.9 0.9313600000
5866.6 0.9281300000
5867.2 0.9299200000
5867.9 0.9275400000
5868.6 0.9342200000
5869.2 0.9303200000
5869.9 0.9301900000
5870.5 0.9276500000
5871.2 0.9260400000
5871.8 0.9292900000
5872.5 0.9291000000
5873.2 0.9269600000
5873.8 0.9305800000
5874.5 0.9320900000
5875.1 0.9279900000
5875.8 0.9285000000
5876.4 0.9296600000
5877.1 0.9325500000
5877.8 0.9312800000
5878.4 0.9287700000
5879.1 0.9305900000
5879.7 0.9309100000
5880.4 0.9291200000
5881.0 0.9327500000
5881.7 0.9326900000
5882.4 0.9328100000
5883.0 0.9351300000
5883.7 0.9322000000
5884.3 0.9341700000
5885.0 0.9329200000
5885.6 0.9357800000
5886.3 0.9358200000
5886.9 0.9358300000
5887.6 0.9345600000
5888.3 0.9351600000
5888.9 0.9377100000
5889.6 0.9375200000
5890.2 0.9374800000
5890.9 0.9342100000
5891.5 0.9380500000
5892.2 0.9375400000
5892.8 0.9404900000
5893.5 0.9383400000
5894.1 0.9393100000
5894.8 0.9418200000
5895.5 0.9418200000
5896.1 0.9426000000
5896.8 0.9443100000
5897.4 0.9431600000
5898.1 0.9426100000
5898.7 0.9454900000
5899.4 0.9465200000
5900.0 0.9481300000
5900.7 0.9474400000
5901.3 0.9478900000
5902.0 0.9479200000
5902.6 0.9521200000
5903.3 0.9480000000
5903.9 0.9505100000
5904.6 0.9441300000
5905.2 0.9492000000
5905.9 0.9473000000
5906.5 0.9468300000
5907.2 0.9496600000
5907.8 0.9525000000
5908.5 0.9540900000
5909.1 0.9518200000
5909.8 0.9518100000
5910.4 0.9528500000
5911.1 0.9551600000
5911.7 0.9537700000
5912.4 0.9557300000
5913.0 0.9541300000
5913.7 0.9534300000
5914.3 0.9543800000
5915.0 0.9553900000
5915.6 0.9543700000
5916.3 0.9589900000
5916.9 0.9593800000
5917.6 0.9547300000
5918.2 0.9586900000
5918.9 0.9575300000
5919.5 0.9605800000
5920.2 0.9569700000
5920.8 0.9586800000
5921.5 0.9601600000
5922.1 0.9582900000
5922.8 0.9608400000
5923.4 0.9619100000
5924.1 0.9603300000
5924.7 0.9616000000
5925.4 0.9626700000
5926.0 0.9605300000
5926.7 0.9608900000
5927.3 0.9620000000
5928.0 0.9623200000
5928.6 0.9621900000
5929.2 0.9647100000
5929.9 0.9605900000
5930.5 0.9636200000
5931.2 0.9640300000
5931.8 0.9618100000
5932.5 0.9605700000
5933.1 0.9634100000
5933.8 0.9619100000
5934.4 0.9660100000
5935.1 0.9644300000
5935.7 0.9609400000
5936.4 0.9658400000
5937.0 0.9638900000
5937.6 0.9664100000
5938.3 0.9658200000
5938.9 0.9658100000
5939.6 0.9655200000
5940.2 0.9621000000
5940.9 0.9653900000
5941.5 0.9648900000
5942.1 0.9644700000
5942.8 0.9678900000
5943.4 0.9631400000
5944.1 0.9607300000
5944.7 0.9667700000
5945.4 0.9638600000
5946.0 0.9657900000
5946.7 0.9629500000
5947.3 0.9623500000
5947.9 0.9630900000
5948.6 0.9656900000
5949.2 0.9623800000
5949.9 0.9656800000
5950.5 0.9649800000
5951.1 0.9655200000
5951.8 0.9640200000
5952.4 0.9651400000
5953.1 0.9660200000
5953.7 0.9646000000
5954.4 0.9673100000
5955.0 0.9607200000
5955.6 0.9636500000
5956.3 0.9632500000
5956.9 0.9649200000
5957.6 0.9624700000
5958.2 0.9621200000
5958.8 0.9625900000
5959.5 0.9630200000
5960.1 0.9612700000
5960.8 0.9633800000
5961.4 0.9598400000
5962.0 0.9636600000
5962.7 0.9625500000
5963.3 0.9625600000
5964.0 0.9636700000
5964.6 0.9614700000
5965.2 0.9593700000
5965.9 0.9633000000
5966.5 0.9636100000
5967.1 0.9628800000
5967.8 0.9610600000
5968.4 0.9604400000
5969.1 0.9630900000
5969.7 0.9616900000
5970.3 0.9628500000
5971.0 0.9627800000
5971.6 0.9622200000
5972.2 0.9586800000
5972.9 0.9650800000
5973.5 0.9628000000
5974.2 0.9630500000
5974.8 0.9588500000
5975.4 0.9622200000
5976.1 0.9614000000
5976.7 0.9624500000
5977.3 0.9618500000
5978.0 0.9598000000
5978.6 0.9580600000
5979.2 0.9630900000
5979.9 0.9597500000
5980.5 0.9576600000
5981.1 0.9595800000
5981.8 0.9608200000
5982.4 0.9605000000
5983.1 0.9585900000
5983.7 0.9601800000
5984.3 0.9572400000
5985.0 0.9601200000
5985.6 0.9633600000
5986.2 0.9602400000
5986.9 0.9596200000
5987.5 0.9600900000
5988.1 0.9583900000
5988.8 0.9604200000
5989.4 0.9611300000
5990.0 0.9592200000
5990.7 0.9639900000
5991.3 0.9607900000
5991.9 0.9618700000
5992.6 0.9586900000
5993.2 0.9616200000
5993.8 0.9591500000
5994.5 0.9630900000
5995.1 0.9603000000
5995.7 0.9583100000
5996.3 0.9627500000
5997.0 0.9586300000
5997.6 0.9616400000
5998.2 0.9601200000
5998.9 0.9653600000
5999.5 0.9594200000
6000.1 0.9617000000
6000.8 0.9598200000
6001.4 0.9592300000
6002.0 0.9623200000
6002.7 0.9613500000
6003.3 0.9628900000
6003.9 0.9587200000
6004.5 0.9613100000
6005.2 0.9622000000
6005.8 0.9617500000
6006.4 0.9589700000
6007.1 0.9627200000
6007.7 0.9582500000
6008.3 0.9631500000
6008.9 0.9614600000
6009.6 0.9636100000
6010.2 0.9603100000
6010.8 0.9631800000
6011.5 0.9568100000
6012.1 0.9605300000
6012.7 0.9598300000
6013.3 0.9617600000
6014.0 0.9628500000
6014.6 0.9608400000
6015.2 0.9660700000
6015.8 0.9600900000
6016.5 0.9616900000
6017.1 0.9630000000
6017.7 0.9594800000
6018.4 0.9614000000
6019.0 0.9631500000
6019.6 0.9620000000
6020.2 0.9616300000
6020.9 0.9618600000
6021.5 0.9629400000
6022.1 0.9591200000
6022.7 0.9579600000
6023.4 0.9604900000
6024.0 0.9620500000
6024.6 0.9605700000
6025.2 0.9585700000
6025.9 0.9599300000
6026.5 0.9559800000
6027.1 0.9602000000
6027.7 0.9569000000
6028.4 0.9603000000
6029.0 0.9570900000
6029.6 0.9571900000
6030.2 0.9568000000
6030.8 0.9611200000
6031.5 0.9555400000
6032.1 0.9556900000
6032.7 0.9579200000
6033.3 0.9536300000
6034.0 0.9555700000
6034.6 0.9592600000
6035.2 0.9565300000
6035.8 0.9566100000
6036.5 0.9544000000
6037.1 0.9565300000
6037.7 0.9560200000
6038.3 0.9546700000
6038.9 0.9558700000
6039.6 0.9570600000
6040.2 0.9565000000
6040.8 0.9516400000
6041.4 0.9543800000
6042.0 0.9497200000
6042.7 0.9518700000
6043.3 0.9526700000
6043.9 0.9547800000
6044.5 0.9519400000
6045.1 0.9515600000
6045.8 0.9461300000
6046.4 0.9461700000
6047.0 0.9504300000
6047.6 0.9498200000
6048.2 0.9473000000
6048.9 0.9480000000
6049.5 0.9448700000
6050.1 0.9460700000
6050.7 0.9471000000
6051.3 0.9451100000
6051.9 0.9446100000
6052.6 0.9465900000
6053.2 0.9426000000
6053.8 0.9452600000
6054.4 0.9432000000
6055.0 0.9428600000
6055.7 0.9431800000
6056.3 0.9435400000
6056.9 0.9420000000
6057.5 0.9396700000
6058.1 0.9389600000
6058.7 0.9406800000
6059.4 0.9416800000
6060.0 0.9394800000
6060.6 0.9365900000
6061.2 0.9383400000
6061.8 0.9397200000
6062.4 0.9399700000
6063.0 0.9337000000
6063.7 0.9384100000
6064.3 0.9337400000
6064.9 0.9348000000
6065.5 0.9366300000
6066.1 0.9320400000
6066.7 0.9320700000
6067.3 0.9376900000
6068.0 0.9293700000
6068.6 0.9344700000
6069.2 0.9326100000
6069.8 0.9341400000
6070.4 0.9310500000
6071.0 0.9319600000
6071.6 0.9295000000
6072.3 0.9314400000
6072.9 0.9307800000
6073.5 0.9304600000
6074.1 0.9312800000
6074.7 0.9296900000
6075.3 0.9339200000
6075.9 0.9290400000
6076.5 0.9305800000
6077.1 0.9270900000
6077.8 0.9279500000
6078.4 0.9247800000
6079.0 0.9263400000
6079.6 0.9314200000
6080.2 0.9230300000
6080.8 0.9277300000
6081.4 0.9267300000
6082.0 0.9255200000
6082.6 0.9271700000
6083.3 0.9266900000
6083.9 0.9281400000
6084.5 0.9258500000
6085.1 0.9244800000
6085.7 0.9273600000
6086.3 0.9277000000
6086.9 0.9256500000
6087.5 0.9223200000
6088.1 0.9273700000
6088.7 0.9252800000
6089.3 0.9262400000
6090.0 0.9248600000
6090.6 0.9265800000
6091.2 0.9274100000
6091.8 0.9273000000
6092.4 0.9249100000
6093.0 0.9247900000
6093.6 0.9266800000
6094.2 0.9238000000
6094.8 0.9243700000
6095.4 0.9260700000
6096.0 0.9218600000
6096.6 0.9267100000
6097.2 0.9248300000
6097.8 0.9233500000
6098.5 0.9260900000
6099.1 0.9232600000
6099.7 0.9280600000
6100.3 0.9242900000
6100.9 0.9272500000
6101.5 0.9242800000
6102.1 0.9251500000
6102.7 0.9268700000
6103.3 0.9273200000
6103.9 0.9255600000
6104.5 0.9260900000
6105.1 0.9295500000
6105.7 0.9270300000
6106.3 0.9300100000
6106.9 0.9273900000
6107.5 0.9286500000
6108.1 0.9287500000
6108.7 0.9281100000
6109.3 0.9284400000
6109.9 0.9336300000
6110.5 0.9287600000
6111.1 0.9308600000
6111.7 0.9292000000
6112.3 0.9320800000
6112.9 0.9333200000
6113.5 0.9312500000
6114.1 0.9307000000
6114.7 0.9341800000
6115.3 0.9343600000
6115.9 0.9288200000
6116.6 0.9335100000
6117.2 0.9333600000
6117.8 0.9328500000
6118.4 0.9360600000
6119.0 0.9374500000
6119.6 0.9370200000
6120.2 0.9377800000
6120.8 0.9339100000
6121.4 0.9336900000
6122.0 0.9363900000
6122.6 0.9349100000
6123.1 0.9348200000
6123.7 0.9353000000
6124.3 0.9397300000
6124.9 0.9392800000
6125.5 0.9394700000
6126.1 0.9412000000
6126.7 0.9398100000
6127.3 0.9430000000
6127.9 0.9443700000
6128.6 0.9432600000
6129.3 0.9465300000
6129.9 0.9431900000
6130.6 0.9475700000
6131.2 0.9461000000
6131.9 0.9465900000
6132.6 0.9495300000
6133.2 0.9476700000
6133.9 0.9494600000
6134.5 0.9481000000
6135.2 0.9483900000
6135.8 0.9507600000
6136.5 0.9507100000
6137.1 0.9487900000
6137.8 0.9522600000
6138.5 0.9528800000
6139.1 0.9506800000
6139.8 0.9518700000
6140.4 0.9556500000
6141.1 0.9523200000
6141.7 0.9544400000
6142.4 0.9543000000
6143.1 0.9547900000
6143.7 0.9501100000
6144.4 0.9503700000
6145.0 0.9538400000
6145.7 0.9571800000
6146.3 0.9547700000
6147.0 0.9538200000
6147.6 0.9550400000
6148.3 0.9581400000
6149.0 0.9544700000
6149.6 0.9574000000
6150.3 0.9589700000
6150.9 0.9541000000
6151.6 0.9546000000
6152.2 0.9567500000
6152.9 0.9608100000
6153.5 0.9576400000
6154.2 0.9549800000
6154.8 0.9579400000
6155.5 0.9576100000
6156.2 0.9611300000
6156.8 0.9618800000
6157.5 0.9583900000
6158.1 0.9611800000
